trstepF lambdaF nF trstepR lambdaR nR maxI(T;Y) correspondingI(X;T) [for each layer]
100 0.0 5 100 0.0 50.99916 12.00000 0.99916 11.99103 0.99653 11.74670 0.99524 10.00254 0.97871 4.46624 0.93500 1.33709 
100 0.0 5 100 0.0 50.99916 12.00000 0.99916 11.99591 0.99653 11.77458 0.98957 9.54548 0.98871 2.67625 0.97154 1.55989 
100 0.0 5 100 0.0 50.99916 12.00000 0.99916 11.99542 0.99818 11.90180 0.98581 11.35836 0.96252 6.25719 0.90002 2.20434 
100 0.0 5 100 0.0 50.99916 12.00000 0.99916 11.99805 0.99916 11.95806 0.99769 11.28986 0.99370 5.27489 0.94875 1.93893 
100 0.0 5 100 0.0 50.99916 11.99902 0.99916 11.99737 0.99537 11.21352 0.99867 7.43348 0.99467 2.49609 0.98415 1.19906 
100 0.0 5 100 0.0 50.99916 12.00000 0.99916 11.96490 0.97602 11.25547 0.94310 9.43496 0.93996 5.32478 0.90504 2.02803 
100 0.0 5 100 0.001 50.99916 12.00000 0.99916 11.99200 0.99916 11.68063 0.99867 7.14659 0.99346 3.88823 0.98238 1.31982 
100 0.0 5 100 0.001 50.99916 11.99902 0.99916 11.99347 0.98944 11.23743 0.98227 8.80535 0.99088 3.13966 0.97448 1.83178 
100 0.0 5 100 0.001 50.99916 12.00000 0.99916 11.99591 0.99818 11.89687 0.99672 11.35389 0.98993 7.26026 0.90881 1.95338 
100 0.0 5 100 0.001 50.99916 12.00000 0.99916 11.99902 0.99769 11.90342 0.99330 11.28928 0.98512 5.10688 0.93921 1.89605 
100 0.0 5 100 0.001 50.99916 12.00000 0.99916 11.99737 0.99305 11.57753 0.99367 8.86196 0.99043 3.53171 0.95487 1.22661 
100 0.0 5 100 0.0001 50.99916 12.00000 0.99916 11.99902 0.99769 11.80604 0.99641 11.27334 0.96098 3.65084 0.94355 1.91489 
100 0.0 5 100 0.0001 50.99916 12.00000 0.99916 11.99902 0.99409 11.77122 0.96854 9.99975 0.94168 4.75567 0.89350 1.87329 
100 0.0 5 100 0.0001 50.99916 11.99805 0.99916 11.99737 0.99507 11.71486 0.99226 10.47692 0.98365 4.24584 0.92302 1.87148 
100 0.0 5 100 0.0001 50.99916 11.99902 0.99916 11.99591 0.98531 10.92074 0.98992 8.24226 0.98305 2.88367 0.97040 1.69037 
100 0.0 5 100 0.0001 50.99916 12.00000 0.99916 11.99103 0.99604 11.55352 0.99684 7.35197 0.99204 3.17439 0.97603 1.23854 
100 0.0 5 100 1e-05 50.99916 12.00000 0.99916 11.97345 0.99916 11.87672 0.99769 11.18847 0.99063 4.23613 0.94448 1.99650 
100 0.0 5 100 1e-05 50.99916 11.99805 0.99916 11.99249 0.99672 11.66630 0.99158 8.53939 0.98118 2.55529 0.96096 1.55695 
100 0.0 5 100 1e-05 50.99916 12.00000 0.99916 11.99493 0.99574 11.96631 0.95378 8.93205 0.96314 4.36098 0.94382 2.09714 
100 0.0 5 100 1e-05 50.99916 12.00000 0.99916 11.99737 0.99653 11.87410 0.97548 11.06593 0.96433 6.16297 0.91462 2.43775 
100 0.0 5 100 1e-05 50.99916 11.99805 0.99916 11.99884 0.99751 11.75427 0.99126 9.19211 0.99313 3.48395 0.96859 1.93618 

100 0.0 5 100 0.0 50.99916 12.00000 0.99916 11.99902 0.99867 11.96417 0.97480 11.16356 0.97939 7.86096 0.92821 2.40154 
100 0.0 5 100 0.0 50.99916 12.00000 0.99916 11.99902 0.99916 11.91099 0.97858 9.52001 0.97140 3.22068 0.94430 1.63942 
100 0.0 5 100 0.0 50.99916 11.99805 0.99916 11.99542 0.99180 11.31592 0.98927 8.94812 0.99304 3.47717 0.98243 1.85492 
100 0.0 5 100 0.0 50.99916 12.00000 0.99916 11.99249 0.98963 11.43530 0.97838 8.67421 0.96650 2.75597 0.93548 1.15669 
100 0.0 5 100 0.0 50.99916 12.00000 0.99916 11.99902 0.99653 11.74602 0.99038 8.62927 0.98450 3.12856 0.96577 1.45611 
100 0.0 5 100 0.001 50.99916 11.99902 0.99916 11.99902 0.99602 11.54307 0.99535 8.64742 0.99328 3.12780 0.98318 1.40445 
100 0.0 5 100 0.001 50.99916 12.00000 0.99916 11.98419 0.99818 11.63034 0.99751 7.68273 0.99240 2.94730 0.98211 1.66825 
100 0.0 5 100 0.001 50.99916 12.00000 0.99916 11.99902 0.99058 11.11881 0.99673 7.73291 0.99140 2.95557 0.97910 1.64332 
100 0.0 5 100 0.001 50.99916 11.99902 0.99916 11.98614 0.97992 11.36129 0.96369 9.20111 0.96292 3.28461 0.93958 2.04375 
100 0.0 5 100 0.001 50.99916 12.00000 0.99916 11.99737 0.99818 11.92183 0.98714 11.34482 0.96714 5.20420 0.92670 1.89193 
100 0.0 5 100 0.0001 50.99916 12.00000 0.99916 11.99737 0.99916 11.88030 0.99577 9.64163 0.98944 2.51864 0.98143 1.44139 
100 0.0 5 100 0.0001 50.99916 11.99902 0.99916 11.99591 0.99555 11.67087 0.99702 10.09698 0.99194 3.31099 0.97429 1.70800 
100 0.0 5 100 0.0001 50.99916 12.00000 0.99916 11.98028 0.99916 11.08677 0.99916 4.43256 0.99319 2.09250 0.99036 1.02251 
100 0.0 5 100 0.0001 50.99916 12.00000 0.99916 11.99444 0.99916 11.84360 0.99916 8.80978 0.99673 2.46103 0.98741 1.38971 
100 0.0 5 100 0.0001 50.99916 11.99854 0.99916 11.99805 0.97840 11.44909 0.96132 9.69872 0.98025 5.11982 0.94592 2.26565 
100 0.0 5 100 1e-05 50.99916 11.99902 0.99916 11.96564 0.99653 11.66080 0.99595 9.29916 0.99595 3.11586 0.98909 1.86047 
100 0.0 5 100 1e-05 50.99916 12.00000 0.99916 11.99902 0.99519 11.72971 0.99057 10.41682 0.96920 5.96958 0.94245 1.78867 
100 0.0 5 100 1e-05 50.99916 11.99902 0.99916 11.99902 0.99119 11.47305 0.98242 9.75540 0.98523 3.76301 0.96177 1.72919 
100 0.0 5 100 1e-05 50.99916 12.00000 0.99916 11.99902 0.99916 11.97296 0.99653 11.50672 0.99458 5.68553 0.95034 1.68569 
100 0.0 5 100 1e-05 50.99916 12.00000 0.99916 11.99493 0.98865 11.53809 0.98540 10.21590 0.97397 3.89273 0.94194 1.74463 
100 0.0 5 100 0.01 50.99916 11.99902 0.99916 11.98712 0.99604 11.53626 0.99751 7.81259 0.98526 2.71213 0.97403 1.02168 
100 0.0 5 100 0.01 50.99916 11.99902 0.99916 11.99737 0.98765 11.33505 0.98431 10.33940 0.99098 4.29132 0.95869 1.86210 
100 0.0 5 100 0.01 50.99916 12.00000 0.99916 11.99902 0.99818 11.89011 0.98455 11.07004 0.96080 5.41381 0.91529 1.84302 
100 0.0 5 100 0.01 50.99916 12.00000 0.99916 11.98321 0.97092 11.19625 0.99098 10.94191 0.97552 7.56408 0.89864 2.46936 
100 0.0 5 100 0.01 50.99916 12.00000 0.99916 11.99737 0.99867 11.94488 0.99439 10.90212 0.97867 5.66136 0.90979 1.50897 
100 0.0 5 100 0.01 50.99916 11.99902 0.99916 11.98419 0.99867 11.41987 0.99867 7.89450 0.99675 2.36573 0.99411 1.29211 
100 0.0 5 100 0.01 50.99916 12.00000 0.99916 11.98273 0.97735 9.91964 0.98615 7.99663 0.98677 3.01401 0.96604 1.63501 
100 0.0 5 100 0.01 50.99916 12.00000 0.99916 11.99249 0.99149 10.92098 0.99378 5.87317 0.98994 2.73705 0.97661 1.02734 
100 0.0 5 100 0.01 50.99916 12.00000 0.99916 11.99737 0.99586 11.65158 0.99653 9.94317 0.98232 3.50360 0.95896 1.80984 
100 0.0 5 100 0.01 50.99916 11.99493 0.99916 11.94321 0.98159 11.04782 0.97957 9.79766 0.98423 3.98194 0.95214 2.01221 
100 0.0 5 100 0.1 50.99916 12.00000 0.99916 11.99902 0.99867 11.89030 0.99409 10.89503 0.99448 5.70730 0.95673 1.84317 
100 0.0 5 100 0.1 50.99916 12.00000 0.99916 11.99444 0.99379 11.62905 0.98771 10.40667 0.98988 4.62803 0.95903 1.81878 
100 0.0 5 100 0.1 50.99916 12.00000 0.99916 11.99072 0.99916 11.92419 0.99302 10.24638 0.98255 3.01745 0.96822 1.64637 
100 0.0 5 100 0.1 50.99916 11.99902 0.99916 11.98761 0.98554 11.38639 0.98126 10.00791 0.97658 3.91535 0.95987 1.67370 
100 0.0 5 100 0.1 50.99916 12.00000 0.99916 11.99249 0.99818 11.88914 0.98989 10.97358 0.96625 3.88659 0.93008 1.81154 
100 0.0 5 100 0.1 50.99916 12.00000 0.99916 11.99396 0.99769 11.19676 0.99598 6.78591 0.99457 2.45366 0.98985 1.03698 
100 0.0 5 100 0.1 50.99916 11.99902 0.99916 11.98517 0.98899 11.31878 0.98879 7.91309 0.98442 2.89987 0.97179 1.59146 
100 0.0 5 100 0.1 50.99916 11.99902 0.99916 11.99249 0.99555 11.37715 0.99166 9.09476 0.99400 2.84478 0.97677 1.49693 
100 0.0 5 100 0.1 50.99916 12.00000 0.99916 11.99756 0.98267 10.53253 0.98933 7.15128 0.98213 2.94293 0.97145 1.54912 
100 0.0 5 100 0.1 50.99916 12.00000 0.99916 11.99902 0.98678 11.28494 0.98307 8.51769 0.97750 2.74972 0.96429 1.42569 
100 0.0 5 100 1.0 50.99916 12.00000 0.99916 11.98419 0.97660 11.44272 0.96512 9.62741 0.97460 5.11475 0.94439 2.27086 
100 0.0 5 100 1.0 50.99916 11.99902 0.99916 11.99902 0.99818 11.72003 0.98942 8.88956 0.97055 2.86806 0.94790 1.49290 
100 0.0 5 100 1.0 50.99916 12.00000 0.99916 11.94133 0.98424 11.24325 0.97892 9.34747 0.98523 3.84947 0.96848 1.79851 
100 0.0 5 100 1.0 50.99916 12.00000 0.99916 11.98761 0.98979 11.42651 0.99252 9.57508 0.99421 4.06225 0.98650 1.69329 
100 0.0 5 100 1.0 50.99916 12.00000 0.99916 11.93340 0.99616 11.59125 0.98833 9.49670 0.99322 2.87374 0.98377 1.52028 
100 0.0 5 100 1.0 50.99916 12.00000 0.99916 11.99902 0.99818 11.83106 0.98258 9.95027 0.96430 6.20370 0.89161 1.67381 
100 0.0 5 100 1.0 50.99916 12.00000 0.99916 11.99493 0.99582 11.52428 0.99291 9.62841 0.97650 4.35124 0.95029 1.46561 
100 0.0 5 100 1.0 50.99916 12.00000 0.99916 11.99902 0.99848 11.92150 0.99751 11.08658 0.97576 5.31256 0.93137 1.74339 
100 0.0 5 100 1.0 50.99916 11.99902 0.99916 11.95196 0.99653 11.60945 0.99382 9.37184 0.98641 3.07489 0.96455 1.84449 
100 0.0 5 100 1.0 50.99916 12.00000 0.99916 11.99365 0.99525 11.75261 0.96571 9.46729 0.96187 4.38227 0.91381 2.20140 
100 0.0 5 100 10.0 50.99916 11.99805 0.99916 11.96466 0.99769 11.77029 0.99818 10.44479 0.99050 3.68467 0.95921 1.79214 
100 0.0 5 100 10.0 50.99916 12.00000 0.99916 11.99805 0.99042 11.34309 0.99134 8.88625 0.99388 3.07538 0.98294 1.64794 
100 0.0 5 100 10.0 50.99916 12.00000 0.99916 11.98321 0.99021 11.43791 0.98826 10.39659 0.99330 4.87623 0.96710 2.17869 
100 0.0 5 100 10.0 50.99916 12.00000 0.99916 11.99493 0.96905 11.06416 0.97395 10.54723 0.96637 4.74606 0.94711 2.01663 
100 0.0 5 100 10.0 50.99916 12.00000 0.99916 11.99444 0.98933 11.25339 0.99488 8.43117 0.99277 2.84980 0.98114 1.67745 
100 0.0 5 100 10.0 50.99916 11.99805 0.99916 11.98712 0.99751 11.70950 0.99244 10.35819 0.99197 4.72277 0.94468 1.92349 
100 0.0 5 100 10.0 50.99916 11.98175 0.99916 11.98712 0.99848 11.80840 0.99653 10.85433 0.98088 4.18624 0.95532 1.93214 
100 0.0 5 100 10.0 50.99916 11.99902 0.99916 11.99396 0.98921 11.86488 0.97298 8.63216 0.97642 3.85340 0.95790 1.82423 
100 0.0 5 100 10.0 50.99916 12.00000 0.99916 11.99298 0.99535 11.80345 0.99427 10.49395 0.97891 3.40664 0.94466 1.85094 
100 0.0 5 100 10.0 50.99916 11.99902 0.99916 11.99737 0.99867 11.87308 0.99433 10.66091 0.98016 4.17171 0.95019 2.02772 
100 10.0 5 100 0.0 50.99916 11.99805 0.99916 11.99023 0.99867 11.87448 0.99305 10.43171 0.96145 4.98437 0.90187 2.30009 
100 10.0 5 100 0.0 50.99916 12.00000 0.99916 11.99902 0.99916 11.94891 0.99488 9.26514 0.99252 2.68659 0.97446 1.44553 
100 10.0 5 100 0.0 50.99916 11.99902 0.99916 11.99689 0.99818 11.82613 0.99263 10.57650 0.98894 4.02435 0.96070 1.74396 
100 10.0 5 100 0.0 50.99916 11.99902 0.99916 11.98859 0.99672 11.81145 0.99867 9.47301 0.98702 4.08534 0.97100 1.69319 
100 10.0 5 100 0.0 50.99916 12.00000 0.99916 11.99054 0.99916 11.94091 0.99555 10.66098 0.94540 5.15602 0.88290 1.71812 
100 1.0 5 100 0.0 50.99916 12.00000 0.99916 11.99298 0.99916 11.91368 0.99800 9.08197 0.99356 2.35276 0.98648 1.33577 
100 1.0 5 100 0.0 50.99916 12.00000 0.99916 11.98517 0.99519 11.34504 0.99525 7.77571 0.99174 2.56991 0.97461 1.61272 
100 1.0 5 100 0.0 50.99916 11.99902 0.99916 11.99658 0.99867 11.87601 0.98932 9.15848 0.98149 4.43682 0.91898 1.69280 
100 1.0 5 100 0.0 50.99916 12.00000 0.99916 11.98712 0.99867 11.93108 0.99290 9.71010 0.98269 3.17664 0.96175 1.48484 
100 1.0 5 100 0.0 50.99916 12.00000 0.99916 11.99902 0.99421 11.68813 0.98005 10.57107 0.97328 5.27500 0.93616 1.92476 
100 0.1 5 100 0.0 50.99916 12.00000 0.99916 11.99200 0.99818 11.69855 0.99525 9.11767 0.98077 3.13722 0.96372 1.71371 
100 0.1 5 100 0.0 50.99916 11.99902 0.99916 11.99737 0.99916 11.77623 0.99916 9.00155 0.99916 2.93232 0.99765 1.14025 
100 0.1 5 100 0.0 50.99916 11.99902 0.99916 11.94366 0.99507 11.69177 0.99042 10.90325 0.98342 4.59930 0.93733 2.08356 
100 0.1 5 100 0.0 50.99916 12.00000 0.99916 11.99737 0.99916 11.76737 0.99867 9.38236 0.99583 2.53571 0.98354 1.41951 
100 0.1 5 100 0.0 50.99916 12.00000 0.99916 11.99444 0.99653 11.70775 0.98291 8.72104 0.97409 2.99761 0.95620 1.75288 
100 0.01 5 100 0.0 50.99916 11.99902 0.99916 11.99884 0.99916 11.80659 0.99739 7.85010 0.98485 2.47230 0.96312 1.02790 
100 0.01 5 100 0.0 50.99916 12.00000 0.99916 11.98517 0.99720 11.86450 0.98595 11.24885 0.98075 7.01157 0.91883 2.37487 
100 0.01 5 100 0.0 50.99916 11.99902 0.99916 11.97491 0.99800 11.55907 0.99818 9.76022 0.98815 4.51600 0.97651 1.62061 
100 0.01 5 100 0.0 50.99916 12.00000 0.99916 11.99591 0.99458 11.72526 0.99189 10.51286 0.97519 3.82162 0.95054 1.86604 
100 0.01 5 100 0.0 50.99916 12.00000 0.99916 11.97350 0.99189 11.62566 0.98820 9.17708 0.98427 3.57802 0.96829 1.76152 